Point:,Frequency(Hz),Amplitude(dBm)
0,495000000.00,    -83.08
1,495010000.00,    -76.88
2,495020000.00,    -78.59
3,495030000.00,    -73.83
4,495040000.00,    -77.02
5,495050000.00,    -76.92
6,495060000.00,    -75.07
7,495070000.00,    -74.60
8,495080000.00,    -89.99
9,495090000.00,    -82.45
10,495100000.00,    -76.01
11,495110000.00,    -75.14
12,495120000.00,    -83.08
13,495130000.00,    -75.29
14,495140000.00,    -81.24
15,495150000.00,    -77.79
16,495160000.00,    -73.57
17,495170000.00,    -73.03
18,495180000.00,    -76.70
19,495190000.00,    -75.72
20,495200000.00,    -79.17
21,495210000.00,    -78.43
22,495220000.00,    -75.76
23,495230000.00,    -72.43
24,495240000.00,    -75.53
25,495250000.00,    -75.33
26,495260000.00,    -86.75
27,495270000.00,    -78.00
28,495280000.00,    -87.49
29,495290000.00,    -71.55
30,495300000.00,    -76.05
31,495310000.00,    -75.93
32,495320000.00,    -76.43
33,495330000.00,    -71.98
34,495340000.00,    -81.95
35,495350000.00,    -80.58
36,495360000.00,    -81.55
37,495370000.00,    -81.09
38,495380000.00,    -75.76
39,495390000.00,    -74.09
40,495400000.00,    -77.95
41,495410000.00,    -77.64
42,495420000.00,    -77.11
43,495430000.00,    -76.52
44,495440000.00,    -79.53
45,495450000.00,    -76.18
46,495460000.00,    -70.57
47,495470000.00,    -70.57
48,495480000.00,    -81.47
49,495490000.00,    -75.72
50,495500000.00,    -83.27
51,495510000.00,    -82.20
52,495520000.00,    -74.02
53,495530000.00,    -73.54
54,495540000.00,    -78.76
55,495550000.00,    -72.60
56,495560000.00,    -75.29
57,495570000.00,    -74.71
58,495580000.00,    -74.99
59,495590000.00,    -74.85
60,495600000.00,    -75.64
61,495610000.00,    -75.41
62,495620000.00,    -86.19
63,495630000.00,    -81.63
64,495640000.00,    -77.90
65,495650000.00,    -77.69
66,495660000.00,    -70.24
67,495670000.00,    -69.84
68,495680000.00,    -74.56
69,495690000.00,    -74.53
70,495700000.00,    -75.41
71,495710000.00,    -74.96
72,495720000.00,    -78.21
73,495730000.00,    -76.92
74,495740000.00,    -72.94
75,495750000.00,    -72.85
76,495760000.00,    -77.84
77,495770000.00,    -75.89
78,495780000.00,    -81.70
79,495790000.00,    -77.69
80,495800000.00,    -75.89
81,495810000.00,    -75.80
82,495820000.00,    -75.03
83,495830000.00,    -74.85
84,495840000.00,    -73.89
85,495850000.00,    -73.60
86,495860000.00,    -76.74
87,495870000.00,    -76.43
88,495880000.00,    -80.17
89,495890000.00,    -74.05
90,495900000.00,    -85.07
91,495910000.00,    -80.94
92,495920000.00,    -71.57
93,495930000.00,    -71.55
94,495940000.00,    -82.99
95,495950000.00,    -82.45
96,495960000.00,    -76.43
97,495970000.00,    -75.76
98,495980000.00,    -74.19
99,495990000.00,    -73.83
100,496000000.00,    -74.67
101,496010000.00,    -74.36
102,496020000.00,    -72.82
103,496030000.00,    -72.68
104,496040000.00,    -73.30
105,496050000.00,    -72.63
106,496060000.00,    -78.54
107,496070000.00,    -71.30
108,496080000.00,    -75.03
109,496090000.00,    -72.65
110,496100000.00,    -78.21
111,496110000.00,    -77.02
112,496120000.00,    -68.86
113,496130000.00,    -68.77
114,496140000.00,    -75.57
115,496150000.00,    -73.24
116,496160000.00,    -88.65
117,496170000.00,    -79.05
118,496180000.00,    -82.20
119,496190000.00,    -73.76
120,496200000.00,    -84.50
121,496210000.00,    -79.72
122,496220000.00,    -69.64
123,496230000.00,    -69.54
124,496240000.00,    -72.74
125,496250000.00,    -72.49
126,496260000.00,    -79.47
127,496270000.00,    -74.39
128,496280000.00,    -81.70
129,496290000.00,    -81.09
130,496300000.00,    -71.95
131,496310000.00,    -71.85
132,496320000.00,    -76.39
133,496330000.00,    -75.80
134,496340000.00,    -76.35
135,496350000.00,    -76.01
136,496360000.00,    -82.11
137,496370000.00,    -78.10
138,496380000.00,    -83.47
139,496390000.00,    -78.82
140,496400000.00,    -78.32
141,496410000.00,    -75.89
142,496420000.00,    -77.49
143,496430000.00,    -77.25
144,496440000.00,    -78.99
145,496450000.00,    -72.91
146,496460000.00,    -80.11
147,496470000.00,    -74.78
148,496480000.00,    -75.14
149,496490000.00,    -74.89
150,496500000.00,    -75.57
151,496510000.00,    -73.76
152,496520000.00,    -83.47
153,496530000.00,    -83.27
154,496540000.00,    -85.07
155,496550000.00,    -75.26
156,496560000.00,    -84.61
157,496570000.00,    -71.95
158,496580000.00,    -82.90
159,496590000.00,    -76.52
160,496600000.00,    -76.30
161,496610000.00,    -74.60
162,496620000.00,    -69.58
163,496630000.00,    -69.53
164,496640000.00,    -74.05
165,496650000.00,    -69.66
166,496660000.00,    -80.73
167,496670000.00,    -75.93
168,496680000.00,    -73.27
169,496690000.00,    -73.21
170,496700000.00,    -75.26
171,496710000.00,    -74.22
172,496720000.00,    -84.84
173,496730000.00,    -84.72
174,496740000.00,    -72.30
175,496750000.00,    -72.27
176,496760000.00,    -79.91
177,496770000.00,    -75.22
178,496780000.00,    -79.05
179,496790000.00,    -78.59
180,496800000.00,    -87.34
181,496810000.00,    -74.60
182,496820000.00,    -81.09
183,496830000.00,    -70.68
184,496840000.00,    -80.94
185,496850000.00,    -79.05
186,496860000.00,    -76.88
187,496870000.00,    -72.65
188,496880000.00,    -83.18
189,496890000.00,    -75.57
190,496900000.00,    -77.79
191,496910000.00,    -77.25
192,496920000.00,    -87.04
193,496930000.00,    -79.91
194,496940000.00,    -80.31
195,496950000.00,    -76.35
196,496960000.00,    -76.18
197,496970000.00,    -75.60
198,496980000.00,    -78.70
199,496990000.00,    -77.20
200,497000000.00,    -73.09
201,497010000.00,    -72.68
202,497020000.00,    -80.66
203,497030000.00,    -79.78
204,497040000.00,    -72.97
205,497050000.00,    -72.68
206,497060000.00,    -76.61
207,497070000.00,    -76.01
208,497080000.00,    -80.66
209,497090000.00,    -75.45
210,497100000.00,    -73.89
211,497110000.00,    -73.45
212,497120000.00,    -72.57
213,497130000.00,    -72.30
214,497140000.00,    -74.19
215,497150000.00,    -73.57
216,497160000.00,    -71.95
217,497170000.00,    -70.93
218,497180000.00,    -91.09
219,497190000.00,    -84.18
220,497200000.00,    -84.39
221,497210000.00,    -77.79
222,497220000.00,    -76.79
223,497230000.00,    -75.64
224,497240000.00,    -76.79
225,497250000.00,    -76.43
226,497260000.00,    -71.16
227,497270000.00,    -70.59
228,497280000.00,    -76.79
229,497290000.00,    -76.56
230,497300000.00,    -71.33
231,497310000.00,    -71.30
232,497320000.00,    -74.43
233,497330000.00,    -73.96
234,497340000.00,    -77.06
235,497350000.00,    -76.88
236,497360000.00,    -75.49
237,497370000.00,    -75.07
238,497380000.00,    -85.55
239,497390000.00,    -72.80
240,497400000.00,    -81.47
241,497410000.00,    -80.87
242,497420000.00,    -82.45
243,497430000.00,    -77.44
244,497440000.00,    -79.41
245,497450000.00,    -70.88
246,497460000.00,    -77.64
247,497470000.00,    -71.23
248,497480000.00,    -79.05
249,497490000.00,    -71.95
250,497500000.00,    -75.14
251,497510000.00,    -69.74
252,497520000.00,    -77.30
253,497530000.00,    -76.61
254,497540000.00,    -83.86
255,497550000.00,    -72.71
256,497560000.00,    -84.61
257,497570000.00,    -73.51
258,497580000.00,    -78.54
259,497590000.00,    -73.83
260,497600000.00,    -73.73
261,497610000.00,    -73.03
262,497620000.00,    -71.35
263,497630000.00,    -70.95
264,497640000.00,    -72.35
265,497650000.00,    -72.30
266,497660000.00,    -82.03
267,497670000.00,    -78.65
268,497680000.00,    -81.47
269,497690000.00,    -78.87
270,497700000.00,    -76.70
271,497710000.00,    -76.39
272,497720000.00,    -74.81
273,497730000.00,    -74.78
274,497740000.00,    -83.86
275,497750000.00,    -37.39
276,497760000.00,    -70.11
277,497770000.00,    -70.05
278,497780000.00,    -77.20
279,497790000.00,    -70.65
280,497800000.00,    -78.00
281,497810000.00,    -77.95
282,497820000.00,    -74.85
283,497830000.00,    -74.56
284,497840000.00,    -84.72
285,497850000.00,    -74.25
286,497860000.00,    -75.64
287,497870000.00,    -75.29
288,497880000.00,    -71.93
289,497890000.00,    -71.70
290,497900000.00,    -70.46
291,497910000.00,    -70.33
292,497920000.00,    -82.90
293,497930000.00,    -76.61
294,497940000.00,    -73.06
295,497950000.00,    -71.67
296,497960000.00,    -79.59
297,497970000.00,    -79.05
298,497980000.00,    -74.81
299,497990000.00,    -74.53
300,498000000.00,    -80.51
301,498010000.00,    -77.06
302,498020000.00,    -79.78
303,498030000.00,    -79.59
304,498040000.00,    -77.64
305,498050000.00,    -72.97
306,498060000.00,    -87.65
307,498070000.00,    -79.98
308,498080000.00,    -79.72
309,498090000.00,    -75.93
310,498100000.00,    -73.76
311,498110000.00,    -73.73
312,498120000.00,    -77.25
313,498130000.00,    -76.79
314,498140000.00,    -89.58
315,498150000.00,    -82.20
316,498160000.00,    -74.63
317,498170000.00,    -73.99
318,498180000.00,    -75.93
319,498190000.00,    -75.64
320,498200000.00,    -80.24
321,498210000.00,    -79.66
322,498220000.00,    -78.76
323,498230000.00,    -78.59
324,498240000.00,    -77.25
325,498250000.00,    -75.93
326,498260000.00,    -83.76
327,498270000.00,    -76.01
328,498280000.00,    -74.49
329,498290000.00,    -74.36
330,498300000.00,    -81.32
331,498310000.00,    -72.08
332,498320000.00,    -81.24
333,498330000.00,    -79.98
334,498340000.00,    -79.85
335,498350000.00,    -79.35
336,498360000.00,    -83.56
337,498370000.00,    -72.74
338,498380000.00,    -77.59
339,498390000.00,    -77.44
340,498400000.00,    -72.32
341,498410000.00,    -71.93
342,498420000.00,    -71.18
343,498430000.00,    -70.90
344,498440000.00,    -76.97
345,498450000.00,    -76.56
346,498460000.00,    -75.60
347,498470000.00,    -69.27
348,498480000.00,    -74.15
349,498490000.00,    -70.72
350,498500000.00,    -73.15
351,498510000.00,    -72.54
352,498520000.00,    -84.18
353,498530000.00,    -84.07
354,498540000.00,    -85.31
355,498550000.00,    -84.95
356,498560000.00,    -75.64
357,498570000.00,    -75.37
358,498580000.00,    -84.39
359,498590000.00,    -80.45
360,498600000.00,    -82.45
361,498610000.00,    -80.73
362,498620000.00,    -78.37
363,498630000.00,    -78.32
364,498640000.00,    -78.26
365,498650000.00,    -76.56
366,498660000.00,    -83.08
367,498670000.00,    -71.98
368,498680000.00,    -84.72
369,498690000.00,    -83.47
370,498700000.00,    -74.25
371,498710000.00,    -73.09
372,498720000.00,    -73.99
373,498730000.00,    -73.57
374,498740000.00,    -80.11
375,498750000.00,    -74.89
376,498760000.00,    -78.05
377,498770000.00,    -76.79
378,498780000.00,    -75.11
379,498790000.00,    -70.97
380,498800000.00,    -74.63
381,498810000.00,    -74.60
382,498820000.00,    -73.42
383,498830000.00,    -73.42
384,498840000.00,    -80.38
385,498850000.00,    -79.72
386,498860000.00,    -79.05
387,498870000.00,    -74.36
388,498880000.00,    -79.91
389,498890000.00,    -77.35
390,498900000.00,    -79.85
391,498910000.00,    -79.72
392,498920000.00,    -75.33
393,498930000.00,    -74.96
394,498940000.00,    -83.56
395,498950000.00,    -70.95
396,498960000.00,    -76.83
397,498970000.00,    -76.48
398,498980000.00,    -75.80
399,498990000.00,    -74.85
400,499000000.00,    -74.63
401,499010000.00,    -74.49
402,499020000.00,    -78.32
403,499030000.00,    -73.67
404,499040000.00,    -80.94
405,499050000.00,    -75.03
406,499060000.00,    -76.74
407,499070000.00,    -76.30
408,499080000.00,    -80.24
409,499090000.00,    -76.39
410,499100000.00,    -82.81
411,499110000.00,    -80.11
412,499120000.00,    -74.02
413,499130000.00,    -73.83
414,499140000.00,    -89.58
415,499150000.00,    -81.87
416,499160000.00,    -71.65
417,499170000.00,    -71.52
418,499180000.00,    -76.88
419,499190000.00,    -74.71
420,499200000.00,    -81.78
421,499210000.00,    -77.06
422,499220000.00,    -74.09
423,499230000.00,    -73.92
424,499240000.00,    -83.66
425,499250000.00,    -82.99
426,499260000.00,    -79.85
427,499270000.00,    -72.65
428,499280000.00,    -83.08
429,499290000.00,    -81.63
430,499300000.00,    -81.70
431,499310000.00,    -81.16
432,499320000.00,    -81.63
433,499330000.00,    -73.21
434,499340000.00,    -88.65
435,499350000.00,    -76.01
436,499360000.00,    -86.75
437,499370000.00,    -79.23
438,499380000.00,    -75.14
439,499390000.00,    -73.30
440,499400000.00,    -73.51
441,499410000.00,    -73.45
442,499420000.00,    -74.96
443,499430000.00,    -74.43
444,499440000.00,    -82.03
445,499450000.00,    -81.24
446,499460000.00,    -72.24
447,499470000.00,    -72.00
448,499480000.00,    -78.32
449,499490000.00,    -78.00
450,499500000.00,    -84.18
451,499510000.00,    -76.30
452,499520000.00,    -77.44
453,499530000.00,    -77.40
454,499540000.00,    -74.89
455,499550000.00,    -74.56
456,499560000.00,    -76.74
457,499570000.00,    -76.26
458,499580000.00,    -74.92
459,499590000.00,    -74.60
460,499600000.00,    -78.76
461,499610000.00,    -78.26
462,499620000.00,    -81.78
463,499630000.00,    -79.17
464,499640000.00,    -70.46
465,499650000.00,    -70.35
466,499660000.00,    -78.00
467,499670000.00,    -72.19
468,499680000.00,    -77.20
469,499690000.00,    -76.09
470,499700000.00,    -73.21
471,499710000.00,    -72.88
472,499720000.00,    -83.37
473,499730000.00,    -71.09
474,499740000.00,    -73.96
475,499750000.00,    -73.83
476,499760000.00,    -82.72
477,499770000.00,    -71.33
478,499780000.00,    -78.21
479,499790000.00,    -77.59
480,499800000.00,    -73.86
481,499810000.00,    -73.33
482,499820000.00,    -87.04
483,499830000.00,    -75.80
484,499840000.00,    -75.18
485,499850000.00,    -71.42
486,499860000.00,    -76.22
487,499870000.00,    -74.02
488,499880000.00,    -83.18
489,499890000.00,    -77.02
490,499900000.00,    -71.62
491,499910000.00,    -71.23
492,499920000.00,    -77.95
493,499930000.00,    -73.39
494,499940000.00,    -83.56
495,499950000.00,    -69.18
496,499960000.00,    -85.07
497,499970000.00,    -78.37
498,499980000.00,    -76.09
499,499990000.00,    -75.89
500,500000000.00,    -74.32
501,500010000.00,    -73.99
502,500020000.00,    -75.18
503,500030000.00,    -75.07
504,500040000.00,    -87.18
505,500050000.00,    -77.54
506,500060000.00,    -72.32
507,500070000.00,    -72.32
508,500080000.00,    -77.69
509,500090000.00,    -77.06
510,500100000.00,    -83.37
511,500110000.00,    -73.70
512,500120000.00,    -82.63
513,500130000.00,    -81.55
514,500140000.00,    -86.19
515,500150000.00,    -80.94
516,500160000.00,    -71.42
517,500170000.00,    -71.28
518,500180000.00,    -79.05
519,500190000.00,    -77.59
520,500200000.00,    -78.37
521,500210000.00,    -78.26
522,500220000.00,    -77.44
523,500230000.00,    -77.40
524,500240000.00,    -73.70
525,500250000.00,    -73.18
526,500260000.00,    -83.27
527,500270000.00,    -81.02
528,500280000.00,    -82.11
529,500290000.00,    -80.80
530,500300000.00,    -81.16
531,500310000.00,    -80.24
532,500320000.00,    -82.81
533,500330000.00,    -75.33
534,500340000.00,    -73.42
535,500350000.00,    -73.15
536,500360000.00,    -76.61
537,500370000.00,    -76.39
538,500380000.00,    -70.52
539,500390000.00,    -70.41
540,500400000.00,    -81.55
541,500410000.00,    -72.88
542,500420000.00,    -77.30
543,500430000.00,    -73.45
544,500440000.00,    -74.96
545,500450000.00,    -72.24
546,500460000.00,    -81.09
547,500470000.00,    -74.49
548,500480000.00,    -72.80
549,500490000.00,    -71.82
550,500500000.00,    -77.40
551,500510000.00,    -77.30
552,500520000.00,    -74.92
553,500530000.00,    -74.39
554,500540000.00,    -82.45
555,500550000.00,    -72.80
556,500560000.00,    -79.35
557,500570000.00,    -78.37
558,500580000.00,    -78.26
559,500590000.00,    -77.49
560,500600000.00,    -72.24
561,500610000.00,    -72.22
562,500620000.00,    -75.41
563,500630000.00,    -75.37
564,500640000.00,    -76.56
565,500650000.00,    -76.26
566,500660000.00,    -79.66
567,500670000.00,    -75.53
568,500680000.00,    -87.65
569,500690000.00,    -87.49
570,500700000.00,    -78.65
571,500710000.00,    -78.00
572,500720000.00,    -83.56
573,500730000.00,    -81.47
574,500740000.00,    -72.00
575,500750000.00,    -71.67
576,500760000.00,    -75.41
577,500770000.00,    -73.76
578,500780000.00,    -77.95
579,500790000.00,    -76.18
580,500800000.00,    -77.69
581,500810000.00,    -73.06
582,500820000.00,    -76.05
583,500830000.00,    -75.80
584,500840000.00,    -81.78
585,500850000.00,    -77.44
586,500860000.00,    -82.20
587,500870000.00,    -80.17
588,500880000.00,    -76.43
589,500890000.00,    -75.93
590,500900000.00,    -72.11
591,500910000.00,    -71.85
592,500920000.00,    -77.90
593,500930000.00,    -71.09
594,500940000.00,    -74.43
595,500950000.00,    -74.19
596,500960000.00,    -81.24
597,500970000.00,    -71.45
598,500980000.00,    -86.89
599,500990000.00,    -75.64
600,501000000.00,    -81.47
