Point:,Frequency(Hz),Amplitude(dBm)
0,      0.00,    -66.49
1,1000000.00,    -56.60
2,2000000.00,    -27.53
3,3000000.00,    -27.38
4,4000000.00,    -63.39
5,5000000.00,    -55.51
6,6000000.00,    -65.05
7,7000000.00,    -52.31
8,8000000.00,    -65.44
9,9000000.00,    -53.64
10,10000000.00,    -62.44
11,11000000.00,    -54.17
12,12000000.00,    -59.63
13,13000000.00,    -55.31
14,14000000.00,    -62.51
15,15000000.00,    -56.68
16,16000000.00,    -62.97
17,17000000.00,    -57.47
18,18000000.00,    -65.37
19,19000000.00,    -52.96
20,20000000.00,    -65.96
21,21000000.00,    -57.24
22,22000000.00,    -62.25
23,23000000.00,    -52.44
24,24000000.00,    -67.11
25,25000000.00,    -53.83
26,26000000.00,    -66.37
27,27000000.00,    -53.17
28,28000000.00,    -61.37
29,29000000.00,    -55.31
30,30000000.00,    -67.89
31,31000000.00,    -55.23
32,32000000.00,    -62.00
33,33000000.00,    -54.89
34,34000000.00,    -65.26
35,35000000.00,    -55.43
36,36000000.00,    -64.05
37,37000000.00,    -57.48
38,38000000.00,    -63.21
39,39000000.00,    -55.59
40,40000000.00,    -67.63
41,41000000.00,    -60.17
42,42000000.00,    -64.19
43,43000000.00,    -53.84
44,44000000.00,    -61.71
45,45000000.00,    -56.28
46,46000000.00,    -65.28
47,47000000.00,    -54.97
48,48000000.00,    -66.28
49,49000000.00,    -55.14
50,50000000.00,    -65.39
51,51000000.00,    -56.63
52,52000000.00,    -59.05
53,53000000.00,    -54.87
54,54000000.00,    -63.70
55,55000000.00,    -54.59
56,56000000.00,    -68.23
57,57000000.00,    -56.19
58,58000000.00,    -62.85
59,59000000.00,    -57.32
60,60000000.00,    -62.95
61,61000000.00,    -55.55
62,62000000.00,    -60.86
63,63000000.00,    -55.13
64,64000000.00,    -62.98
65,65000000.00,    -56.05
66,66000000.00,    -64.30
67,67000000.00,    -52.20
68,68000000.00,    -59.85
69,69000000.00,    -53.12
70,70000000.00,    -61.44
71,71000000.00,    -54.23
72,72000000.00,    -61.86
73,73000000.00,    -55.31
74,74000000.00,    -66.29
75,75000000.00,    -55.11
76,76000000.00,    -63.49
77,77000000.00,    -55.91
78,78000000.00,    -64.87
79,79000000.00,    -51.69
80,80000000.00,    -61.10
81,81000000.00,    -54.00
82,82000000.00,    -61.81
83,83000000.00,    -54.97
84,84000000.00,    -61.68
85,85000000.00,    -29.64
86,86000000.00,    -24.83
87,87000000.00,    -23.14
88,88000000.00,    -63.28
89,89000000.00,    -53.93
90,90000000.00,    -59.71
91,91000000.00,    -53.20
92,92000000.00,    -67.37
93,93000000.00,    -57.36
94,94000000.00,    -62.23
95,95000000.00,    -52.51
96,96000000.00,    -65.63
97,97000000.00,    -51.89
98,98000000.00,    -59.83
99,99000000.00,    -54.48
100,100000000.00,    -64.66
101,101000000.00,    -56.27
102,102000000.00,    -62.98
103,103000000.00,    -55.91
104,104000000.00,    -64.69
105,105000000.00,    -53.70
106,106000000.00,    -62.78
107,107000000.00,    -53.97
108,108000000.00,    -65.75
109,109000000.00,    -55.35
110,110000000.00,    -65.12
111,111000000.00,    -54.68
112,112000000.00,    -68.77
113,113000000.00,    -55.28
114,114000000.00,    -63.41
115,115000000.00,    -54.39
116,116000000.00,    -60.54
117,117000000.00,    -55.57
118,118000000.00,    -65.58
119,119000000.00,    -56.48
120,120000000.00,    -65.06
121,121000000.00,    -57.56
122,122000000.00,    -64.41
123,123000000.00,    -57.80
124,124000000.00,    -62.58
125,125000000.00,    -53.87
126,126000000.00,    -68.35
127,127000000.00,    -53.95
128,128000000.00,    -57.82
129,129000000.00,    -53.62
130,130000000.00,    -61.53
131,131000000.00,    -54.95
132,132000000.00,    -60.90
133,133000000.00,    -54.65
134,134000000.00,    -65.68
135,135000000.00,    -54.98
136,136000000.00,    -60.87
137,137000000.00,    -53.64
138,138000000.00,    -62.33
139,139000000.00,    -57.08
140,140000000.00,    -63.28
141,141000000.00,    -54.01
142,142000000.00,    -61.29
143,143000000.00,    -54.79
144,144000000.00,    -63.55
145,145000000.00,    -54.26
146,146000000.00,    -61.65
147,147000000.00,    -52.23
148,148000000.00,    -65.14
149,149000000.00,    -56.07
150,150000000.00,    -63.18
151,151000000.00,    -54.80
152,152000000.00,    -62.20
153,153000000.00,    -55.41
154,154000000.00,    -60.91
155,155000000.00,    -57.20
156,156000000.00,    -63.33
157,157000000.00,    -54.53
158,158000000.00,    -62.97
159,159000000.00,    -56.38
160,160000000.00,    -64.51
161,161000000.00,    -55.65
162,162000000.00,    -68.46
163,163000000.00,    -53.74
164,164000000.00,    -66.13
165,165000000.00,    -55.96
166,166000000.00,    -58.94
167,167000000.00,    -53.66
168,168000000.00,    -64.66
169,169000000.00,    -56.29
170,170000000.00,    -28.69
171,171000000.00,    -25.42
172,172000000.00,    -35.61
173,173000000.00,    -33.10
174,174000000.00,    -63.97
175,175000000.00,    -56.17
176,176000000.00,    -63.95
177,177000000.00,    -57.77
178,178000000.00,    -62.99
179,179000000.00,    -52.36
180,180000000.00,    -64.23
181,181000000.00,    -54.62
182,182000000.00,    -64.03
183,183000000.00,    -54.89
184,184000000.00,    -63.88
185,185000000.00,    -55.46
186,186000000.00,    -66.58
187,187000000.00,    -56.17
188,188000000.00,    -67.69
189,189000000.00,    -54.88
190,190000000.00,    -62.29
191,191000000.00,    -55.75
192,192000000.00,    -61.00
193,193000000.00,    -56.43
194,194000000.00,    -64.36
195,195000000.00,    -55.01
196,196000000.00,    -60.68
197,197000000.00,    -53.12
198,198000000.00,    -61.28
199,199000000.00,    -54.75
200,200000000.00,    -61.54
201,201000000.00,    -52.70
202,202000000.00,    -61.50
203,203000000.00,    -54.40
204,204000000.00,    -67.15
205,205000000.00,    -50.64
206,206000000.00,    -61.98
207,207000000.00,    -52.88
208,208000000.00,    -60.58
209,209000000.00,    -55.64
210,210000000.00,    -65.58
211,211000000.00,    -55.58
212,212000000.00,    -64.78
213,213000000.00,    -55.37
214,214000000.00,    -58.07
215,215000000.00,    -53.80
216,216000000.00,    -59.96
217,217000000.00,    -53.44
218,218000000.00,    -66.86
219,219000000.00,    -54.61
220,220000000.00,    -63.60
221,221000000.00,    -53.48
222,222000000.00,    -68.46
223,223000000.00,    -56.80
224,224000000.00,    -61.65
225,225000000.00,    -57.05
226,226000000.00,    -67.18
227,227000000.00,    -57.65
228,228000000.00,    -60.04
229,229000000.00,    -54.33
230,230000000.00,    -64.32
231,231000000.00,    -57.76
232,232000000.00,    -63.51
233,233000000.00,    -55.72
234,234000000.00,    -65.06
235,235000000.00,    -55.33
236,236000000.00,    -63.98
237,237000000.00,    -54.93
238,238000000.00,    -65.74
239,239000000.00,    -58.84
240,240000000.00,    -64.45
241,241000000.00,    -53.47
242,242000000.00,    -62.62
243,243000000.00,    -55.79
244,244000000.00,    -63.91
245,245000000.00,    -55.32
246,246000000.00,    -67.84
247,247000000.00,    -56.32
248,248000000.00,    -61.46
249,249000000.00,    -55.88
250,250000000.00,    -63.75
251,251000000.00,    -55.46
252,252000000.00,    -68.05
253,253000000.00,    -55.82
254,254000000.00,    -64.76
255,255000000.00,    -55.26
256,256000000.00,    -59.64
257,257000000.00,    -55.49
258,258000000.00,    -66.49
259,259000000.00,    -56.35
260,260000000.00,    -65.91
261,261000000.00,    -58.54
262,262000000.00,    -63.13
263,263000000.00,    -55.63
264,264000000.00,    -60.36
265,265000000.00,    -55.26
266,266000000.00,    -72.22
267,267000000.00,    -56.54
268,268000000.00,    -67.47
269,269000000.00,    -55.12
270,270000000.00,    -62.45
271,271000000.00,    -54.82
272,272000000.00,    -66.02
273,273000000.00,    -56.06
274,274000000.00,    -61.98
275,275000000.00,    -53.84
276,276000000.00,    -62.78
277,277000000.00,    -55.94
278,278000000.00,    -65.87
279,279000000.00,    -54.93
280,280000000.00,    -63.92
281,281000000.00,    -54.96
282,282000000.00,    -62.43
283,283000000.00,    -54.87
284,284000000.00,    -70.11
285,285000000.00,    -54.26
286,286000000.00,    -64.00
287,287000000.00,    -52.57
288,288000000.00,    -59.52
289,289000000.00,    -55.63
290,290000000.00,    -63.50
291,291000000.00,    -57.32
292,292000000.00,    -68.85
293,293000000.00,    -56.16
294,294000000.00,    -62.91
295,295000000.00,    -54.55
296,296000000.00,    -64.49
297,297000000.00,    -54.87
298,298000000.00,    -64.52
299,299000000.00,    -53.80
300,300000000.00,    -59.39
301,301000000.00,    -54.32
302,302000000.00,    -61.53
303,303000000.00,    -55.31
304,304000000.00,    -70.97
305,305000000.00,    -55.58
306,306000000.00,    -65.02
307,307000000.00,    -56.43
308,308000000.00,    -62.61
309,309000000.00,    -56.04
310,310000000.00,    -61.28
311,311000000.00,    -56.43
312,312000000.00,    -61.86
313,313000000.00,    -56.07
314,314000000.00,    -64.71
315,315000000.00,    -57.64
316,316000000.00,    -61.50
317,317000000.00,    -55.37
318,318000000.00,    -59.96
319,319000000.00,    -54.94
320,320000000.00,    -61.69
321,321000000.00,    -54.13
322,322000000.00,    -67.73
323,323000000.00,    -55.24
324,324000000.00,    -61.90
325,325000000.00,    -56.79
326,326000000.00,    -61.11
327,327000000.00,    -55.03
328,328000000.00,    -58.69
329,329000000.00,    -54.97
330,330000000.00,    -62.22
331,331000000.00,    -55.24
332,332000000.00,    -62.08
333,333000000.00,    -53.10
334,334000000.00,    -63.62
335,335000000.00,    -54.67
336,336000000.00,    -65.35
337,337000000.00,    -57.03
338,338000000.00,    -61.31
339,339000000.00,    -54.57
340,340000000.00,    -64.05
341,341000000.00,    -56.90
342,342000000.00,    -63.16
343,343000000.00,    -54.81
344,344000000.00,    -61.31
345,345000000.00,    -55.20
346,346000000.00,    -64.71
347,347000000.00,    -55.61
348,348000000.00,    -60.15
349,349000000.00,    -50.79
350,350000000.00,    -65.39
351,351000000.00,    -53.91
352,352000000.00,    -63.35
353,353000000.00,    -57.47
354,354000000.00,    -60.13
355,355000000.00,    -55.13
356,356000000.00,    -67.92
357,357000000.00,    -55.12
358,358000000.00,    -65.97
359,359000000.00,    -54.23
360,360000000.00,    -64.36
361,361000000.00,    -54.61
362,362000000.00,    -65.89
363,363000000.00,    -55.01
364,364000000.00,    -65.01
365,365000000.00,    -56.89
366,366000000.00,    -62.22
367,367000000.00,    -54.20
368,368000000.00,    -65.98
369,369000000.00,    -54.52
370,370000000.00,    -62.79
371,371000000.00,    -56.68
372,372000000.00,    -61.42
373,373000000.00,    -54.95
374,374000000.00,    -61.91
375,375000000.00,    -55.32
376,376000000.00,    -64.00
377,377000000.00,    -54.72
378,378000000.00,    -65.71
379,379000000.00,    -56.37
380,380000000.00,    -66.33
381,381000000.00,    -57.65
382,382000000.00,    -62.21
383,383000000.00,    -56.56
384,384000000.00,    -63.47
385,385000000.00,    -54.32
386,386000000.00,    -62.48
387,387000000.00,    -56.13
388,388000000.00,    -62.92
389,389000000.00,    -54.45
390,390000000.00,    -60.84
391,391000000.00,    -54.46
392,392000000.00,    -64.53
393,393000000.00,    -53.72
394,394000000.00,    -63.29
395,395000000.00,    -54.86
396,396000000.00,    -63.03
397,397000000.00,    -57.41
398,398000000.00,    -66.76
399,399000000.00,    -55.27
400,400000000.00,    -61.84
401,401000000.00,    -51.40
402,402000000.00,    -66.30
403,403000000.00,    -53.40
404,404000000.00,    -69.09
405,405000000.00,    -52.85
406,406000000.00,    -61.38
407,407000000.00,    -55.12
408,408000000.00,    -63.67
409,409000000.00,    -57.65
410,410000000.00,    -61.20
411,411000000.00,    -54.31
412,412000000.00,    -66.85
413,413000000.00,    -56.44
414,414000000.00,    -61.35
415,415000000.00,    -55.25
416,416000000.00,    -61.39
417,417000000.00,    -53.75
418,418000000.00,    -62.23
419,419000000.00,    -54.92
420,420000000.00,    -64.60
421,421000000.00,    -55.87
422,422000000.00,    -62.55
423,423000000.00,    -54.68
424,424000000.00,    -66.92
425,425000000.00,    -56.36
426,426000000.00,    -65.85
427,427000000.00,    -55.29
428,428000000.00,    -62.96
429,429000000.00,    -56.21
430,430000000.00,    -65.35
431,431000000.00,    -56.27
432,432000000.00,    -60.00
433,433000000.00,    -55.01
434,434000000.00,    -63.84
435,435000000.00,    -54.76
436,436000000.00,    -62.96
437,437000000.00,    -56.16
438,438000000.00,    -62.26
439,439000000.00,    -54.23
440,440000000.00,    -61.45
441,441000000.00,    -55.59
442,442000000.00,    -68.99
443,443000000.00,    -51.78
444,444000000.00,    -65.97
445,445000000.00,    -54.39
446,446000000.00,    -66.95
447,447000000.00,    -57.24
448,448000000.00,    -63.53
449,449000000.00,    -55.21
450,450000000.00,    -61.01
451,451000000.00,    -55.72
452,452000000.00,    -66.48
453,453000000.00,    -54.59
454,454000000.00,    -66.48
455,455000000.00,    -54.73
456,456000000.00,    -59.88
457,457000000.00,    -53.18
458,458000000.00,    -60.54
459,459000000.00,    -51.91
460,460000000.00,    -67.32
461,461000000.00,    -54.25
462,462000000.00,    -65.03
463,463000000.00,    -53.58
464,464000000.00,    -62.08
465,465000000.00,    -53.88
466,466000000.00,    -65.56
467,467000000.00,    -53.84
468,468000000.00,    -65.80
469,469000000.00,    -55.28
470,470000000.00,    -60.52
471,471000000.00,    -54.85
472,472000000.00,    -60.64
473,473000000.00,    -52.85
474,474000000.00,    -64.99
475,475000000.00,    -54.52
476,476000000.00,    -64.02
477,477000000.00,    -56.18
478,478000000.00,    -62.06
479,479000000.00,    -56.67
480,480000000.00,    -62.80
481,481000000.00,    -55.48
482,482000000.00,    -63.05
483,483000000.00,    -53.86
484,484000000.00,    -73.67
485,485000000.00,    -55.55
486,486000000.00,    -62.06
487,487000000.00,    -56.03
488,488000000.00,    -63.15
489,489000000.00,    -54.31
490,490000000.00,    -64.95
491,491000000.00,    -55.67
492,492000000.00,    -68.32
493,493000000.00,    -55.28
494,494000000.00,    -64.78
495,495000000.00,    -54.00
496,496000000.00,    -61.38
497,497000000.00,    -56.04
498,498000000.00,    -65.43
499,499000000.00,    -56.48
500,500000000.00,    -65.76
501,501000000.00,    -52.79
502,502000000.00,    -67.10
503,503000000.00,    -51.31
504,504000000.00,    -61.91
505,505000000.00,    -53.88
506,506000000.00,    -65.96
507,507000000.00,    -55.16
508,508000000.00,    -65.79
509,509000000.00,    -54.60
510,510000000.00,    -63.70
511,511000000.00,    -56.13
512,512000000.00,    -64.50
513,513000000.00,    -54.43
514,514000000.00,    -60.47
515,515000000.00,    -53.62
516,516000000.00,    -65.32
517,517000000.00,    -56.67
518,518000000.00,    -65.71
519,519000000.00,    -56.79
520,520000000.00,    -69.27
521,521000000.00,    -55.35
522,522000000.00,    -69.78
523,523000000.00,    -59.02
524,524000000.00,    -67.65
525,525000000.00,    -55.28
526,526000000.00,    -68.81
527,527000000.00,    -56.26
528,528000000.00,    -62.08
529,529000000.00,    -57.27
530,530000000.00,    -63.79
531,531000000.00,    -57.37
532,532000000.00,    -63.34
533,533000000.00,    -56.22
534,534000000.00,    -60.36
535,535000000.00,    -52.53
536,536000000.00,    -63.39
537,537000000.00,    -51.48
538,538000000.00,    -67.60
539,539000000.00,    -57.53
540,540000000.00,    -67.74
541,541000000.00,    -56.05
542,542000000.00,    -66.85
543,543000000.00,    -54.13
544,544000000.00,    -62.00
545,545000000.00,    -53.42
546,546000000.00,    -64.05
547,547000000.00,    -56.10
548,548000000.00,    -61.85
549,549000000.00,    -54.28
550,550000000.00,    -59.96
551,551000000.00,    -53.30
552,552000000.00,    -66.70
553,553000000.00,    -52.99
554,554000000.00,    -64.27
555,555000000.00,    -55.46
556,556000000.00,    -62.83
557,557000000.00,    -51.18
558,558000000.00,    -64.50
559,559000000.00,    -53.87
560,560000000.00,    -62.99
561,561000000.00,    -54.96
562,562000000.00,    -68.10
563,563000000.00,    -53.70
564,564000000.00,    -63.99
565,565000000.00,    -57.14
566,566000000.00,    -65.94
567,567000000.00,    -55.77
568,568000000.00,    -61.34
569,569000000.00,    -53.45
570,570000000.00,    -63.46
571,571000000.00,    -55.98
572,572000000.00,    -62.31
573,573000000.00,    -58.25
574,574000000.00,    -61.65
575,575000000.00,    -55.25
576,576000000.00,    -64.12
577,577000000.00,    -53.50
578,578000000.00,    -68.53
579,579000000.00,    -53.01
580,580000000.00,    -60.61
581,581000000.00,    -54.28
582,582000000.00,    -60.01
583,583000000.00,    -53.52
584,584000000.00,    -66.36
585,585000000.00,    -55.50
586,586000000.00,    -64.22
587,587000000.00,    -52.57
588,588000000.00,    -63.33
589,589000000.00,    -56.18
590,590000000.00,    -65.42
591,591000000.00,    -55.47
592,592000000.00,    -61.68
593,593000000.00,    -54.16
594,594000000.00,    -70.30
595,595000000.00,    -54.80
596,596000000.00,    -62.06
597,597000000.00,    -56.04
598,598000000.00,    -63.03
599,599000000.00,    -56.18
600,600000000.00,    -62.88
